File: OX_1-7_pouch_LCO_40C_0-100_2-1.84C_g_cycle_data.csv
Cycle_Index,Start_Time,End_Time,Test_Time (s),Min_Current (A),Max_Current (A),Min_Voltage (V),Max_Voltage (V),Charge_Capacity (Ah),Discharge_Capacity (Ah),Charge_Energy (Wh),Discharge_Energy (Wh)
1.0,,,7011.772,-0.74,0.74,2.699,4.2,0.712,0.728,2.723,2.72
100.0,,,624996.672,-0.74,0.74,2.719,4.199,0.703,0.72,2.689,2.689
200.0,,,1241954.227,-0.74,0.74,2.719,4.2,0.699,0.716,2.672,2.673
300.0,,,1992241.353,-0.74,0.74,2.72,4.199,0.697,0.713,2.666,2.663
400.0,,,2607892.264,-0.74,0.74,2.72,4.199,0.693,0.71,2.65,2.651
500.0,,,3223016.089,-0.74,0.74,2.72,4.199,0.69,0.707,2.639,2.64
600.0,,,3837613.977,-0.74,0.74,2.721,4.199,0.687,0.704,2.63,2.631
700.0,,,4497461.925,-0.74,0.74,2.736,4.199,0.687,0.704,2.628,2.63
800.0,,,5111490.835,-0.74,0.74,2.735,4.199,0.684,0.702,2.617,2.621
900.0,,,5725103.471,-0.74,0.74,2.735,4.199,0.682,0.7,2.609,2.613
1000.0,,,6338291.932,-0.74,0.74,2.735,4.199,0.679,0.697,2.6,2.605
1100.0,,,6951077.749,-0.74,0.74,2.735,4.199,0.677,0.695,2.593,2.597
1200.0,,,7563444.583,-0.74,0.74,2.735,4.199,0.675,0.694,2.585,2.59
1300.0,,,8175427.019,-0.74,0.74,2.735,4.199,0.673,0.692,2.578,2.583
1400.0,,,8787042.454,-0.74,0.74,2.735,4.199,0.671,0.69,2.57,2.576
1600.0,,,10092447.378,-0.74,0.74,2.736,4.199,0.667,0.686,2.557,2.562
1800.0,,,11578549.164,-0.74,0.74,2.736,4.199,0.663,0.682,2.54,2.547
1900.0,,,12250321.732,-0.74,0.74,2.736,4.199,0.661,0.68,2.533,2.537
2000.0,,,12941469.833,-0.74,0.74,2.736,4.199,0.658,0.677,2.524,2.529
2100.0,,,13550455.44,-0.74,0.74,2.736,4.199,0.656,0.676,2.515,2.523
2200.0,,,14248221.177,-0.74,0.74,2.736,4.199,0.654,0.673,2.508,2.514
2300.0,,,14856480.637,-0.74,0.74,2.736,4.199,0.652,0.672,2.499,2.508
2400.0,,,15542948.078,-0.74,0.74,2.736,4.199,0.649,0.669,2.492,2.498
2500.0,,,16150471.485,-0.74,0.74,2.737,4.2,0.647,0.668,2.483,2.492
2600.0,,,17028364.542,-0.74,0.74,2.737,4.199,0.645,0.665,2.474,2.481
2700.0,,,17635087.467,-0.74,0.74,2.737,4.2,0.642,0.663,2.466,2.476
2800.0,,,18241485.664,-0.74,0.74,2.737,4.199,0.64,0.661,2.458,2.468
2900.0,,,19270930.354,-0.74,0.74,2.737,4.199,0.638,0.658,2.449,2.458
3000.0,,,19876505.389,-0.74,0.74,2.737,4.2,0.636,0.657,2.442,2.453
3100.0,,,20481790.705,-0.74,0.74,2.737,4.2,0.634,0.655,2.434,2.445
3200.0,,,21257254.566,-0.74,0.74,2.738,4.199,0.631,0.652,2.425,2.434
3300.0,,,21861766.359,-0.74,0.74,2.737,4.2,0.629,0.651,2.418,2.43
3500.0,,,23229287.061,-0.74,0.74,2.737,4.199,0.626,0.647,2.408,2.416
3600.0,,,23832344.522,-0.74,0.74,2.737,4.199,0.625,0.646,2.401,2.412
3700.0,,,24435503.188,-0.74,0.74,2.738,4.199,0.62,0.645,2.383,2.406
3800.0,,,25486590.374,-0.74,0.74,2.737,4.198,0.62,0.642,2.383,2.395
3900.0,,,26089093.699,-0.74,0.74,2.737,4.199,0.619,0.641,2.381,2.393
4000.0,,,26691395.583,-0.74,0.74,2.738,4.2,0.617,0.64,2.374,2.387
4100.0,,,27449574.323,-0.74,0.74,2.738,4.199,0.615,0.637,2.366,2.377
4200.0,,,28071483.217,-0.74,0.74,2.738,4.199,0.614,0.636,2.36,2.372
4300.0,,,28672897.524,-0.74,0.74,2.739,4.199,0.611,0.634,2.352,2.366
4400.0,,,29274062.408,-0.74,0.74,2.739,4.199,0.61,0.633,2.345,2.36
4500.0,,,29961193.545,-0.74,0.74,2.739,4.2,0.607,0.63,2.338,2.35
4600.0,,,30561754.521,-0.74,0.74,2.739,4.199,0.606,0.629,2.331,2.347
4800.0,,,31948304.296,-0.74,0.74,2.74,4.199,0.602,0.626,2.317,2.336
5000.0,,,34038250.994,-0.74,0.74,2.74,4.199,0.598,0.622,2.304,2.321
5100.0,,,34634961.171,-0.74,0.74,2.74,4.199,0.596,0.621,2.296,2.316
5200.0,,,35679136.126,-0.74,0.74,2.741,4.2,0.594,0.618,2.29,2.305
5300.0,,,36277693.981,-0.74,0.74,2.741,4.2,0.593,0.618,2.285,2.304
5400.0,,,36876159.173,-0.74,0.74,2.741,4.2,0.591,0.617,2.278,2.299
5500.0,,,37950382.025,-0.74,0.74,2.741,4.199,0.589,0.614,2.27,2.288
5600.0,,,38548189.393,-0.74,0.74,2.741,4.199,0.588,0.614,2.266,2.287
5700.0,,,39145931.607,-0.74,0.74,2.741,4.2,0.586,0.613,2.26,2.282
5800.0,,,39747620.025,-0.74,0.74,2.741,4.199,0.585,0.611,2.254,2.275
5900.0,,,40344880.738,-0.74,0.74,2.742,4.199,0.583,0.61,2.248,2.27
6000.0,,,40941961.92,-0.74,0.74,2.742,4.199,0.582,0.608,2.242,2.265
6100.0,,,41631835.053,-0.74,0.74,2.742,4.199,0.579,0.605,2.235,2.255
6200.0,,,42228435.79,-0.74,0.74,2.742,4.2,0.579,0.605,2.23,2.254
6300.0,,,42824841.193,-0.74,0.74,2.742,4.2,0.577,0.604,2.225,2.249
6400.0,,,43608154.02,-0.74,0.74,2.742,4.199,0.575,0.601,2.218,2.24
6500.0,,,44204074.659,-0.74,0.74,2.742,4.2,0.574,0.602,2.215,2.239
6600.0,,,44799774.634,-0.74,0.74,2.742,4.199,0.573,0.6,2.209,2.234
6700.0,,,46286986.555,-0.74,0.74,2.742,4.199,0.573,0.598,2.211,2.229
6800.0,,,46882091.894,-0.74,0.74,2.742,4.199,0.572,0.599,2.205,2.228
6900.0,,,47477129.979,-0.74,0.74,2.742,4.199,0.57,0.597,2.199,2.224
7000.0,,,48465622.423,-0.74,0.74,2.743,4.2,0.568,0.594,2.192,2.215
7100.0,,,49059214.418,-0.74,0.74,2.743,4.199,0.567,0.597,2.188,2.219
7200.0,,,49653698.728,-0.74,0.74,2.743,4.199,0.566,0.593,2.182,2.208
7300.0,,,50248032.346,-0.74,0.74,2.743,4.199,0.564,0.592,2.176,2.203
7400.0,,,50863986.205,-0.74,0.74,2.744,4.199,0.562,0.59,2.17,2.196
7500.0,,,51457939.533,-0.74,0.74,2.744,4.199,0.561,0.589,2.164,2.192
7600.0,,,52051703.842,-0.74,0.74,2.744,4.199,0.559,0.588,2.158,2.187
7700.0,,,52697216.98,-0.74,0.74,2.744,4.199,0.557,0.586,2.152,2.179
7800.0,,,53290628.495,-0.74,0.74,2.744,4.199,0.556,0.586,2.148,2.176
7900.0,,,53883808.969,-0.74,0.74,2.745,4.199,0.555,0.584,2.142,2.172
8000.0,,,54593429.769,-0.74,0.74,2.745,4.2,0.553,0.582,2.136,2.165
8100.0,,,55186323.538,-0.74,0.74,2.745,4.2,0.553,0.582,2.134,2.163